Black Body Radiation Experiment Wed, Sep 23, 2020 2:57 PM
Sensor Position (Degrees)	Light Intensity (Volts)
0.00000	-0.09461
0.00000	-0.09187
0.00000	-0.09541
0.00000	-0.09573
0.00000	-0.09992
0.00000	-0.09461
0.00000	-0.09509
0.00000	-0.09751
0.00000	-0.09541
0.00000	-0.09283
0.00000	-0.09493
0.00000	-0.09960
0.00000	-0.09219
0.00000	-0.09171
0.00000	-0.09348
0.00000	-0.09525
0.00000	-0.09654
0.00000	-0.09799
0.00000	-0.09461
0.00000	-0.09670
0.00000	-0.09219
0.00000	-0.09187
0.00000	-0.09380
0.00000	-0.09638
0.00000	-0.09477
0.00000	-0.09364
0.00000	-0.09863
0.01035	-0.09267
0.02070	-0.09428
0.03104	-0.08945
0.03104	-0.09316
0.04139	-0.09364
0.05174	-0.09187
0.06209	-0.09203
0.07244	-0.09154
0.08279	-0.09396
0.09313	-0.09364
0.10348	-0.09589
0.12418	-0.09799
0.13453	-0.09912
0.15522	-0.09428
0.17592	-0.09573
0.20696	-0.09767
0.22766	-0.09461
0.24836	-0.09815
0.28975	-0.09380
0.32079	-0.09799
0.35184	-0.09734
0.38288	-0.09831
0.40358	-0.09525
0.42428	-0.09589
0.44497	-0.09573
0.46567	-0.09461
0.48637	-0.09525
0.51741	-0.09638
0.55880	-0.09541
0.60020	-0.09702
0.65194	-0.09154
0.71403	-0.09461
0.76577	-0.09187
0.82786	-0.09493
0.88994	-0.09187
0.94169	-0.09686
0.99343	-0.09638
1.02447	-0.09541
1.06586	-0.09734
1.09691	-0.09831
1.13830	-0.09332
1.19004	-0.09670
1.22109	-0.09928
1.25213	-0.09751
1.29352	-0.09831
1.33492	-0.09863
1.36596	-0.09557
1.39701	-0.09606
1.43840	-0.09412
1.47979	-0.09573
1.52118	-0.09863
1.55223	-0.09299
1.59362	-0.09783
1.63501	-0.09557
1.67641	-0.09461
1.71780	-0.09138
1.75919	-0.09525
1.81093	-0.09412
1.85233	-0.09396
1.90407	-0.09009
1.94546	-0.09541
1.98685	-0.09251
2.02825	-0.09847
2.05929	-0.09348
2.09034	-0.09638
2.12138	-0.09283
2.15242	-0.09316
2.18347	-0.08881
2.22486	-0.09444
2.29730	-0.09461
2.34904	-0.09557
2.40078	-0.09654
2.45252	-0.09348
2.49392	-0.09154
2.53531	-0.09316
2.55600	-0.09026
2.58705	-0.09171
2.61809	-0.09074
2.63879	-0.09396
2.65949	-0.09477
2.69053	-0.09348
2.73192	-0.09734
2.76297	-0.09606
2.79401	-0.09767
2.82506	-0.09316
2.86645	-0.09074
2.91819	-0.09461
2.96993	-0.09283
3.02167	-0.09219
3.07341	-0.09348
3.12516	-0.09348
3.17690	-0.09187
3.21829	-0.09380
3.27003	-0.09187
3.32177	-0.09396
3.38386	-0.09525
3.43560	-0.09122
3.47699	-0.10057
3.52873	-0.09767
3.58048	-0.09187
3.63222	-0.10008
3.67361	-0.09396
3.71500	-0.08832
3.77709	-0.09428
3.87023	-0.09622
3.93231	-0.09203
4.00475	-0.09348
4.07719	-0.09686
4.17032	-0.09348
4.26346	-0.09461
4.35659	-0.09267
4.42903	-0.09654
4.50147	-0.09444
4.56355	-0.09493
4.62564	-0.09477
4.69808	-0.09573
4.76017	-0.09042
4.81191	-0.09074
4.86365	-0.09638
4.91539	-0.09364
4.95679	-0.09638
4.99818	-0.09428
5.04992	-0.09525
5.08096	-0.09251
5.12236	-0.09589
5.16375	-0.09122
5.19479	-0.09412
5.23619	-0.09219
5.28793	-0.09251
5.33967	-0.09267
5.38106	-0.09235
5.42245	-0.09122
5.47420	-0.09541
5.52594	-0.09138
5.56733	-0.09332
5.59837	-0.09444
5.63977	-0.09573
5.67081	-0.09364
5.70186	-0.09251
5.73290	-0.09557
5.75360	-0.09444
5.78464	-0.09251
5.81569	-0.09557
5.84673	-0.09348
5.86743	-0.09348
5.90882	-0.09122
5.92952	-0.09606
5.95021	-0.09299
5.97091	-0.09171
6.00195	-0.09074
6.03300	-0.09654
6.07439	-0.09767
6.11578	-0.09573
6.14683	-0.09718
6.19857	-0.09589
6.23996	-0.09638
6.28136	-0.09428
6.33310	-0.09171
6.37449	-0.09428
6.42623	-0.09428
6.45727	-0.09396
6.49867	-0.09267
6.56076	-0.09654
6.61250	-0.09299
6.67459	-0.09235
6.73668	-0.09606
6.80911	-0.09332
6.87120	-0.09187
6.93329	-0.09493
6.99538	-0.09122
7.05747	-0.09316
7.10921	-0.09219
7.17130	-0.09815
7.23339	-0.09348
7.28513	-0.09702
7.33687	-0.09203
7.38861	-0.09589
7.44035	-0.09332
7.48175	-0.09428
7.52314	-0.09235
7.56453	-0.09203
7.59558	-0.09203
7.63697	-0.09219
7.67836	-0.09283
7.71975	-0.09412
7.78184	-0.09493
7.83358	-0.09428
7.89567	-0.09235
7.94741	-0.09299
7.99916	-0.09187
8.05090	-0.09122
8.11299	-0.09573
8.17507	-0.09154
8.22682	-0.08977
8.27856	-0.09332
8.34065	-0.09396
8.38204	-0.09187
8.41308	-0.08977
8.45448	-0.09557
8.49587	-0.09428
8.53726	-0.09267
8.58900	-0.09412
8.64074	-0.09541
8.68214	-0.09283
8.71318	-0.09251
8.74423	-0.09203
8.76492	-0.09606
8.79597	-0.09589
8.82701	-0.09412
8.85806	-0.09525
8.88910	-0.09622
8.92015	-0.09042
8.94084	-0.09541
8.96154	-0.09847
8.99258	-0.09154
9.01328	-0.09267
9.03398	-0.09541
9.06502	-0.09187
9.10641	-0.09380
9.13746	-0.09187
9.17885	-0.09267
9.20989	-0.09283
9.25129	-0.09477
9.28233	-0.09106
9.31338	-0.09171
9.33407	-0.09171
9.36512	-0.09235
9.38581	-0.09412
9.40651	-0.08816
9.43755	-0.09203
9.45825	-0.09138
9.47895	-0.09026
9.50999	-0.09154
9.54104	-0.09219
9.56173	-0.09461
9.60313	-0.09058
9.63417	-0.09171
9.67556	-0.08993
9.70661	-0.09042
9.73765	-0.09541
9.76870	-0.09138
9.79974	-0.09203
9.83079	-0.08961
9.87218	-0.09686
9.89288	-0.09364
9.92392	-0.09702
9.95496	-0.09348
9.98601	-0.09267
10.01705	-0.09396
10.04810	-0.09219
10.07914	-0.09219
10.12054	-0.09171
10.13088	-0.09171
10.17228	-0.09332
10.18262	-0.08832
10.21367	-0.09171
10.25506	-0.09316
10.28611	-0.09332
10.31715	-0.09042
10.35854	-0.09171
10.39994	-0.09332
10.42063	-0.08913
10.44133	-0.09283
10.47237	-0.09203
10.50342	-0.09026
10.53446	-0.09396
10.56551	-0.09138
10.59655	-0.08929
10.63795	-0.08848
10.66899	-0.09122
10.70003	-0.08913
10.72073	-0.09267
10.74143	-0.09541
10.76212	-0.08897
10.78282	-0.09332
10.80352	-0.08800
10.82421	-0.09171
10.84491	-0.09203
10.87595	-0.09364
10.90700	-0.09235
10.93804	-0.09138
10.97944	-0.09058
11.01048	-0.08864
11.04153	-0.09267
11.07257	-0.09009
11.10361	-0.09122
11.13466	-0.08832
11.16570	-0.09267
11.19675	-0.08881
11.22779	-0.09235
11.24849	-0.09332
11.26919	-0.08961
11.28988	-0.09316
11.30023	-0.09058
11.32093	-0.09316
11.34162	-0.09058
11.36232	-0.08929
11.39336	-0.09348
11.42441	-0.09299
11.46580	-0.09461
11.50719	-0.09219
11.55894	-0.09332
11.61068	-0.09026
11.66242	-0.09058
11.71416	-0.09138
11.76590	-0.09058
11.80729	-0.08623
11.84868	-0.08848
11.90043	-0.08929
11.94182	-0.09251
11.98321	-0.09122
12.01426	-0.09009
12.05565	-0.08993
12.08669	-0.09251
12.11774	-0.09122
12.13843	-0.09332
12.16948	-0.08864
12.20052	-0.09074
12.23157	-0.08800
12.26261	-0.09235
12.28331	-0.09267
12.30401	-0.09106
12.32470	-0.08832
12.34540	-0.08752
12.37644	-0.09138
12.41784	-0.08897
12.43853	-0.08671
12.47992	-0.09074
12.51097	-0.08864
12.54201	-0.08478
12.56271	-0.08542
12.59375	-0.09187
12.61445	-0.08993
12.63515	-0.08591
12.66619	-0.08575
12.69724	-0.08945
12.73863	-0.08494
12.76967	-0.08558
12.80072	-0.08752
12.83176	-0.08671
12.86281	-0.08317
12.89385	-0.08381
12.92490	-0.08413
12.94559	-0.08204
12.96629	-0.08945
12.99733	-0.08252
13.01803	-0.08542
13.03873	-0.08655
13.04908	-0.08413
13.04908	-0.08558
13.05942	-0.08397
13.06977	-0.08542
13.06977	-0.08333
13.08012	-0.08188
13.09047	-0.08397
13.11116	-0.08913
13.13186	-0.08494
13.14221	-0.08542
13.16291	-0.08107
13.18360	-0.08123
13.20430	-0.08413
13.22499	-0.07946
13.24569	-0.08123
13.27674	-0.08510
13.28708	-0.07930
13.30778	-0.08252
13.32848	-0.08317
13.35952	-0.08156
13.40091	-0.07463
13.44231	-0.08268
13.50440	-0.07930
13.54579	-0.07914
13.58718	-0.07527
13.61823	-0.07463
13.64927	-0.07495
13.69066	-0.07173
13.73206	-0.07415
13.77345	-0.07221
13.79415	-0.07028
13.81484	-0.07157
13.85623	-0.07012
13.89763	-0.06802
13.93902	-0.06496
14.01146	-0.06464
14.07355	-0.06222
14.12529	-0.05981
14.18738	-0.05353
14.24947	-0.05626
14.30121	-0.05175
14.34260	-0.04563
14.39434	-0.04692
14.43573	-0.04225
14.46678	-0.03661
14.51852	-0.03548
14.57026	-0.03033
14.63235	-0.02662
14.68409	-0.02662
14.72548	-0.02147
14.75653	-0.01615
14.80827	-0.01712
14.84966	-0.01196
14.87036	-0.00697
14.90140	-0.00745
14.93245	-0.00584
14.95314	-0.00069
14.97384	-0.00117
14.99454	-0.00069
15.02558	0.00189
15.05663	0.00672
15.09802	0.00189
15.13941	0.00672
15.17046	0.01107
15.21185	0.01043
15.26359	0.01414
15.29463	0.01865
15.32568	0.01462
15.35672	0.01897
15.38777	0.01784
15.40846	0.01832
15.42916	0.01736
15.44986	0.01736
15.47055	0.02074
15.49125	0.01591
15.51195	0.02187
15.53264	0.02267
15.55334	0.01897
15.56369	0.02235
15.58438	0.02219
15.60508	0.02461
15.62578	0.02316
15.63612	0.01913
15.65682	0.01881
15.66717	0.01913
15.68787	0.02122
15.71891	0.02090
15.74995	0.01945
15.78100	0.01929
15.81204	0.01687
15.84309	0.01865
15.86378	0.01575
15.87413	0.01526
15.89483	0.01607
15.90518	0.01124
15.92587	0.01220
15.94657	0.00640
15.97761	0.01124
16.00866	0.00834
16.03970	0.01107
16.06040	0.00640
16.09144	0.01043
16.11214	0.00479
16.14319	0.00544
16.17423	0.00544
16.20528	0.00028
16.21562	0.00044
16.24667	-0.00101
16.27771	0.00012
16.30876	-0.00342
16.32945	-0.00665
16.35015	-0.00536
16.38119	-0.00375
16.40189	-0.01196
16.44328	-0.01470
16.47433	-0.01502
16.51572	-0.01470
16.54677	-0.01953
16.58816	-0.02098
16.62955	-0.02259
16.66060	-0.02549
16.70199	-0.02630
16.73303	-0.02823
16.77443	-0.02646
16.80547	-0.03242
16.83652	-0.03371
16.86756	-0.03935
16.90895	-0.03903
16.94000	-0.04370
16.96069	-0.04467
17.00209	-0.04547
17.03313	-0.04901
17.06418	-0.04982
17.09522	-0.05159
17.13661	-0.05353
17.16766	-0.05610
17.19870	-0.05610
17.22975	-0.06110
17.26079	-0.05916
17.28149	-0.06287
17.30218	-0.06271
17.31253	-0.06335
17.33323	-0.06384
17.35392	-0.06802
17.38497	-0.06432
17.41601	-0.06738
17.44706	-0.06754
17.47810	-0.06867
17.49880	-0.07350
17.51950	-0.07012
17.54019	-0.07076
17.55054	-0.07092
17.57124	-0.07753
17.60228	-0.07769
17.64367	-0.07318
17.67472	-0.07898
17.71611	-0.07721
17.74716	-0.07705
17.78855	-0.07898
17.81959	-0.07721
17.85064	-0.08075
17.89203	-0.08107
17.92308	-0.07946
17.95412	-0.08542
17.97482	-0.08236
18.00586	-0.08687
18.02656	-0.08091
18.04725	-0.08397
18.06795	-0.08397
18.08865	-0.08397
18.09899	-0.08446
18.10934	-0.08719
18.13004	-0.09283
18.14039	-0.08977
18.16108	-0.08317
18.17143	-0.08913
18.19213	-0.09026
18.22317	-0.09187
18.25422	-0.09009
18.29561	-0.08397
18.31631	-0.09332
18.34735	-0.08864
18.37840	-0.08800
18.38874	-0.09154
18.41979	-0.09154
18.46118	-0.09042
18.48188	-0.08736
18.51292	-0.09090
18.53362	-0.09074
18.56466	-0.08993
18.58536	-0.08993
18.61640	-0.09009
18.62675	-0.09026
18.65780	-0.09042
18.68884	-0.09009
18.71989	-0.09009
18.74058	-0.08961
18.76128	-0.09251
18.77163	-0.08687
18.79232	-0.09074
18.80267	-0.09090
18.82337	-0.08913
18.84407	-0.09058
18.87511	-0.08864
18.90615	-0.08784
18.94755	-0.08977
18.97859	-0.08848
19.00964	-0.08752
19.04068	-0.09042
19.06138	-0.08977
19.09242	-0.09316
19.11312	-0.08655
19.13381	-0.08816
19.16486	-0.08752
19.20625	-0.08671
19.23730	-0.09074
19.26834	-0.09106
19.30973	-0.08671
19.34078	-0.08784
19.36147	-0.08864
19.39252	-0.08897
19.42356	-0.08993
19.44426	-0.08977
19.47531	-0.08752
19.49600	-0.08784
19.51670	-0.09154
19.54774	-0.09058
19.57879	-0.08832
19.60983	-0.09203
19.65122	-0.09122
19.68227	-0.08864
19.72366	-0.08897
19.76505	-0.08752
19.80645	-0.09090
19.83749	-0.09138
19.87888	-0.09026
19.92028	-0.08800
19.97202	-0.08703
20.01341	-0.08961
20.05480	-0.08977
20.09620	-0.08897
20.12724	-0.08752
20.16863	-0.09203
20.19968	-0.08961
20.23072	-0.08929
20.26177	-0.08993
20.29281	-0.08961
20.32386	-0.08848
20.35490	-0.09074
20.38595	-0.08719
20.41699	-0.08784
20.44804	-0.08687
20.48943	-0.08881
20.53082	-0.08864
20.58256	-0.08848
20.62395	-0.08832
20.65500	-0.08816
20.69639	-0.08945
20.72744	-0.08462
20.76883	-0.08575
20.79987	-0.08752
20.84127	-0.08607
20.89301	-0.08752
20.94475	-0.08848
20.98614	-0.08848
21.02753	-0.08526
21.05858	-0.08607
21.08962	-0.08913
21.11032	-0.08945
21.13102	-0.08413
21.16206	-0.08639
21.20345	-0.08687
21.23450	-0.08462
21.27589	-0.08575
21.32763	-0.08752
21.36902	-0.08832
21.41042	-0.08623
21.45181	-0.08607
21.50355	-0.08413
21.54494	-0.08591
21.57599	-0.08349
21.60703	-0.08800
21.63808	-0.08655
21.66912	-0.08848
21.70017	-0.08655
21.72086	-0.08800
21.75191	-0.09042
21.77260	-0.08430
21.79330	-0.08607
21.82435	-0.08542
21.84504	-0.08591
21.87609	-0.08703
21.90713	-0.08204
21.93818	-0.08864
21.97957	-0.08736
22.01061	-0.09090
22.04166	-0.08703
22.06235	-0.08430
22.10375	-0.08381
22.13479	-0.08494
22.17618	-0.08816
22.20723	-0.08462
22.24862	-0.08977
22.27967	-0.08848
22.31071	-0.08655
22.34176	-0.08913
22.37280	-0.08945
22.40384	-0.08156
22.43489	-0.08591
22.46593	-0.08703
22.50733	-0.08446
22.53837	-0.08913
22.57976	-0.08881
22.62116	-0.09009
22.66255	-0.08542
22.71429	-0.08945
22.75568	-0.08719
22.79708	-0.08864
22.82812	-0.08816
22.85917	-0.08897
22.90056	-0.08268
22.94195	-0.08607
22.99369	-0.08478
23.05578	-0.08397
23.10752	-0.09106
23.14891	-0.08333
23.19031	-0.08462
23.23170	-0.08881
23.26274	-0.08945
23.30414	-0.08816
23.32483	-0.08365
23.35588	-0.08446
23.38692	-0.08575
23.42832	-0.08768
23.46971	-0.09171
23.50075	-0.08719
23.54215	-0.08719
23.59389	-0.08703
23.62493	-0.08413
23.68702	-0.08494
23.73876	-0.08945
23.78015	-0.08607
23.83190	-0.08703
23.88364	-0.08478
23.92503	-0.08736
23.97677	-0.08317
24.00781	-0.08736
24.04921	-0.08607
24.08025	-0.08639
24.11130	-0.08091
24.14234	-0.08768
24.17339	-0.08510
24.20443	-0.08703
24.23548	-0.08333
24.25617	-0.08607
24.28722	-0.08929
24.31826	-0.09122
24.34931	-0.08623
24.38035	-0.09009
24.41139	-0.08671
24.45279	-0.08333
24.49418	-0.08510
24.52522	-0.08558
24.56662	-0.08236
24.60801	-0.08397
24.64940	-0.08752
24.70114	-0.08413
24.73219	-0.08333
24.77358	-0.08462
24.79428	-0.08575
24.82532	-0.08510
24.84602	-0.08301
24.87706	-0.08703
24.90811	-0.08526
24.93915	-0.08268
24.98055	-0.08381
25.02194	-0.08881
25.05298	-0.08526
25.08403	-0.08639
25.12542	-0.08349
25.14612	-0.08252
25.17716	-0.08607
25.20821	-0.08494
25.22890	-0.08413
25.25995	-0.08430
25.28064	-0.08623
25.30134	-0.08204
25.33238	-0.08172
25.36343	-0.08172
25.38413	-0.07882
25.40482	-0.08542
25.42552	-0.08236
25.45656	-0.08945
25.47726	-0.08542
25.51865	-0.08413
25.56004	-0.08494
25.60144	-0.08494
25.65318	-0.08268
25.69457	-0.08268
25.74631	-0.08397
25.79805	-0.08816
25.86014	-0.08446
25.90153	-0.08430
25.96362	-0.08204
26.01537	-0.08494
26.06711	-0.08639
26.10850	-0.08945
26.16024	-0.08462
26.21198	-0.08510
26.25337	-0.08349
26.29477	-0.08236
26.33616	-0.08413
26.36720	-0.08317
26.40860	-0.08591
26.43964	-0.08526
26.49138	-0.08349
26.54312	-0.08462
26.58452	-0.08333
26.63626	-0.08800
26.68800	-0.08220
26.73974	-0.08478
26.78113	-0.07946
26.82252	-0.08462
26.86392	-0.08446
26.89496	-0.08349
26.92601	-0.07930
26.96740	-0.08687
26.99844	-0.07769
27.01914	-0.08172
27.03984	-0.08236
27.06053	-0.08188
27.09158	-0.08591
27.11227	-0.08027
27.13297	-0.08285
27.16401	-0.08252
27.19506	-0.08043
27.22610	-0.08188
27.25715	-0.07946
27.28819	-0.08172
27.30889	-0.08091
27.31924	-0.08478
27.32959	-0.08381
27.33993	-0.08397
27.35028	-0.08462
27.37098	-0.08655
27.39168	-0.08462
27.41237	-0.08768
27.44342	-0.08591
27.46411	-0.08397
27.49516	-0.08494
27.52620	-0.08172
27.55725	-0.08655
27.58829	-0.08220
27.61934	-0.08381
27.65038	-0.08349
27.69177	-0.08591
27.74351	-0.08575
27.78491	-0.08430
27.82630	-0.08349
27.85734	-0.08204
27.89874	-0.08301
27.94013	-0.08558
27.98152	-0.08494
28.03326	-0.08397
28.07466	-0.08526
28.11605	-0.08446
28.15744	-0.08542
28.19883	-0.08140
28.24023	-0.08252
28.28162	-0.08123
28.32301	-0.08381
28.37475	-0.08301
28.41615	-0.07785
28.45754	-0.08285
28.50928	-0.08075
28.54032	-0.08397
28.58172	-0.08107
28.62311	-0.08494
28.65416	-0.08059
28.69555	-0.08075
28.72659	-0.08107
28.75764	-0.08268
28.80938	-0.08188
28.85077	-0.08027
28.90251	-0.08075
28.94390	-0.08413
28.99565	-0.08301
29.03704	-0.08011
29.08878	-0.08123
29.14052	-0.08027
29.18191	-0.08768
29.23365	-0.07978
29.27505	-0.08043
29.33714	-0.08156
29.37853	-0.08107
29.41992	-0.08252
29.44062	-0.08413
29.47166	-0.08397
29.50271	-0.08236
29.54410	-0.08091
29.59584	-0.08140
29.63723	-0.08268
29.67863	-0.07962
29.72002	-0.08075
29.76141	-0.08462
29.79246	-0.08075
29.83385	-0.08381
29.88559	-0.08204
29.92698	-0.08607
29.97872	-0.08446
30.02012	-0.08397