Black Body Radiation Experiment Wed, Sep 23, 2020 11:42 AM
Sensor Position (Degrees)	Light Intensity (Volts)
0.00000	-0.01680
0.00000	-0.01551
0.00000	-0.02082
0.00000	-0.01502
0.00000	-0.01760
0.00000	-0.01454
0.00000	-0.01390
0.00000	-0.01599
0.00000	-0.01551
0.00000	-0.01889
0.00000	-0.01728
0.00000	-0.01502
0.00000	-0.01470
0.00000	-0.01905
0.00000	-0.01599
0.00000	-0.01712
0.00000	-0.01615
0.00000	-0.01277
0.00000	-0.01180
0.00000	-0.01309
0.00000	-0.01776
0.00000	-0.01486
0.00000	-0.01921
0.00000	-0.01261
0.00000	-0.01180
0.00000	-0.01422
0.00000	-0.01502
0.00000	-0.01277
0.00000	-0.01309
0.00000	-0.01647
0.00000	-0.01631
0.00000	-0.01583
0.00000	-0.01180
0.00000	-0.01760
0.00000	-0.01825
0.00000	-0.01341
0.00000	-0.01551
0.00000	-0.01325
0.00000	-0.01583
0.00000	-0.01647
0.00000	-0.01905
0.00000	-0.01245
0.00000	-0.01341
0.00000	-0.01744
0.00000	-0.01873
0.00000	-0.01599
0.00000	-0.01535
0.00000	-0.01551
0.00000	-0.01873
0.00000	-0.01986
0.00000	-0.01873
0.00000	-0.01970
0.00000	-0.01647
0.00000	-0.01615
0.00000	-0.01551
0.00000	-0.01535
0.00000	-0.01245
0.00000	-0.01502
0.00000	-0.01390
0.00000	-0.01631
0.00000	-0.01438
0.00000	-0.01970
0.00000	-0.01986
0.00000	-0.01647
0.00000	-0.01325
0.00000	-0.01567
0.00000	-0.01470
0.00000	-0.01728
0.00000	-0.01502
0.00000	-0.01518
0.00000	-0.01438
0.00000	-0.01583
0.00000	-0.01293
0.00000	-0.01502
0.00000	-0.01808
0.00000	-0.00955
0.00000	-0.01663
0.00000	-0.01663
0.00000	-0.01422
0.00000	-0.01583
0.00000	-0.01873
0.00000	-0.01663
0.00000	-0.01180
0.00000	-0.01728
0.00000	-0.01196
0.00000	-0.01228
0.00000	-0.01357
0.00000	-0.01567
0.00000	-0.01615
0.00000	-0.01551
0.00000	-0.01712
0.00000	-0.01277
0.00000	-0.01680
0.00000	-0.01357
0.00000	-0.01631
0.00000	-0.01808
0.00000	-0.01937
0.00000	-0.01196
0.00000	-0.01631
0.00000	-0.01551
0.00000	-0.01680
0.00000	-0.01599
0.00000	-0.01551
0.00000	-0.01744
0.00000	-0.01518
0.00000	-0.01390
0.00000	-0.01873
0.00000	-0.01873
0.00000	-0.01567
0.00000	-0.01357
0.00000	-0.01583
0.00000	-0.01696
0.00000	-0.01873
0.00000	-0.02002
0.00000	-0.01357
0.00000	-0.01470
0.00000	-0.01937
0.00000	-0.01792
0.00000	-0.01454
0.00000	-0.02018
0.00000	-0.01825
0.00000	-0.01873
0.00000	-0.02018
0.00000	-0.01728
0.00000	-0.01422
0.00000	-0.01776
0.00000	-0.01663
0.00000	-0.01518
0.00000	-0.01663
0.00000	-0.01873
0.00000	-0.01680
0.00000	-0.01583
0.00000	-0.01357
0.00000	-0.01728
0.00000	-0.01583
0.00000	-0.01212
0.00000	-0.01712
0.00000	-0.01663
0.00000	-0.01615
0.00000	-0.01631
0.00000	-0.01680
0.00000	-0.02050
0.00000	-0.01615
0.00000	-0.01373
0.00000	-0.01438
0.00000	-0.01970
0.00000	-0.01293
0.00000	-0.01454
0.00000	-0.01712
0.00000	-0.01518
0.00000	-0.01486
0.00000	-0.01680
0.00000	-0.01535
0.00000	-0.01647
0.00000	-0.01583
0.00000	-0.01953
0.00000	-0.01551
0.00000	-0.02147
0.00000	-0.01599
0.00000	-0.01825
0.00000	-0.01245
0.00000	-0.01518
0.00000	-0.01583
0.00000	-0.01680
0.00000	-0.01373
0.00000	-0.01970
0.00000	-0.01373
0.00000	-0.01261
0.00000	-0.01631
0.00000	-0.01518
0.00000	-0.01647
0.00000	-0.01792
0.00000	-0.01857
0.00000	-0.01438
0.00000	-0.01744
0.00000	-0.01921
0.00000	-0.01680
0.00000	-0.01551
0.00000	-0.02002
0.00000	-0.01486
0.00000	-0.01518
0.00000	-0.01857
0.00000	-0.01486
0.00000	-0.01567
0.00000	-0.01647
0.00000	-0.01583
0.00000	-0.01873
0.00000	-0.01373
0.00000	-0.01535
0.00000	-0.01422
0.00000	-0.02469
0.00000	-0.01406
0.00000	-0.01921
0.00000	-0.01583
0.00000	-0.01631
0.00000	-0.01535
0.00000	-0.01776
0.00000	-0.01663
0.00000	-0.01325
0.00000	-0.01406
0.00000	-0.01921
0.00000	-0.01551
0.01035	-0.01325
0.01035	-0.01712
0.01035	-0.01357
0.01035	-0.01792
0.01035	-0.01228
0.01035	-0.01341
0.01035	-0.02195
0.01035	-0.01744
0.02070	-0.01357
0.02070	-0.01470
0.02070	-0.01502
0.02070	-0.01341
0.02070	-0.01502
0.02070	-0.01937
0.02070	-0.01373
0.02070	-0.01390
0.02070	-0.01486
0.02070	-0.01631
0.02070	-0.01712
0.02070	-0.01196
0.02070	-0.01551
0.02070	-0.01663
0.02070	-0.01535
0.02070	-0.01647
0.02070	-0.01744
0.02070	-0.01937
0.02070	-0.01486
0.02070	-0.01583
0.02070	-0.01760
0.02070	-0.01502
0.02070	-0.01373
0.02070	-0.01390
0.02070	-0.01937
0.02070	-0.01744
0.02070	-0.01825
0.02070	-0.02098
0.02070	-0.01647
0.02070	-0.01953
0.02070	-0.01325
0.02070	-0.01422
0.02070	-0.01760
0.02070	-0.01438
0.02070	-0.01245
0.03104	-0.01518
0.04139	-0.01502
0.06209	-0.01680
0.08279	-0.01502
0.09313	-0.01406
0.10348	-0.01680
0.12418	-0.01486
0.13453	-0.01502
0.15522	-0.01937
0.17592	-0.01454
0.20696	-0.01647
0.23801	-0.01567
0.25870	-0.01647
0.27940	-0.01454
0.32079	-0.01825
0.34149	-0.01825
0.37254	-0.01518
0.38288	-0.01825
0.42428	-0.02163
0.46567	-0.01502
0.46567	-0.01744
0.46567	-0.01599
0.47602	-0.01100
0.48637	-0.01776
0.48637	-0.01390
0.49671	-0.01551
0.49671	-0.01712
0.50706	-0.01728
0.53811	-0.01615
0.58985	-0.01373
0.63124	-0.01631
0.65194	-0.01760
0.68298	-0.02066
0.72437	-0.01406
0.79681	-0.01889
0.80716	-0.01438
0.85890	-0.01116
0.88994	-0.01599
0.94169	-0.01390
1.01412	-0.01341
1.04517	-0.01551
1.14865	-0.01953
1.23144	-0.01486
1.26248	-0.02066
1.26248	-0.01486
1.30387	-0.01373
1.33492	-0.01712
1.38666	-0.01454
1.42805	-0.01502
1.45910	-0.01373
1.46944	-0.01502
1.47979	-0.01470
1.50049	-0.01212
1.51084	-0.01599
1.54188	-0.01486
1.57293	-0.01486
1.60397	-0.01373
1.63501	-0.01970
1.66606	-0.01663
1.71780	-0.01567
1.75919	-0.01873
1.82128	-0.01132
1.86268	-0.01873
1.90407	-0.01470
1.95581	-0.01712
1.99720	-0.01245
2.03859	-0.01454
2.04894	-0.01728
2.07999	-0.01599
2.12138	-0.01744
2.17312	-0.01373
2.21451	-0.01647
2.23521	-0.01744
2.25591	-0.01325
2.27660	-0.01647
2.29730	-0.01341
2.32834	-0.01551
2.36974	-0.01567
2.42148	-0.01615
2.47322	-0.01277
2.52496	-0.01180
2.57670	-0.01261
2.62844	-0.01164
2.66983	-0.01663
2.72158	-0.01100
2.76297	-0.01454
2.80436	-0.01615
2.83541	-0.01245
2.86645	-0.01228
2.90784	-0.01212
2.93889	-0.01825
2.96993	-0.01518
3.01133	-0.00938
3.06307	-0.01760
3.11481	-0.01067
3.15620	-0.01341
3.18724	-0.00906
3.21829	-0.01067
3.25968	-0.01261
3.29073	-0.01502
3.32177	-0.01309
3.35282	-0.01615
3.39421	-0.01454
3.44595	-0.01422
3.48734	-0.01390
3.52873	-0.01373
3.57013	-0.01325
3.61152	-0.01293
3.65291	-0.01535
3.68396	-0.01406
3.72535	-0.01647
3.75640	-0.01696
3.79779	-0.01631
3.82883	-0.01019
3.85988	-0.01502
3.90127	-0.01744
3.93231	-0.01100
3.98406	-0.01567
4.01510	-0.01341
4.06684	-0.01406
4.09789	-0.01792
4.13928	-0.01164
4.18067	-0.01937
4.23241	-0.01357
4.27380	-0.01406
4.31520	-0.01535
4.35659	-0.01551
4.39798	-0.01599
4.43938	-0.01357
4.47042	-0.01116
4.51181	-0.01776
4.56355	-0.01228
4.60495	-0.01454
4.63599	-0.01454
4.66704	-0.01325
4.69808	-0.01390
4.72913	-0.00987
4.77052	-0.01406
4.81191	-0.01357
4.85330	-0.01390
4.88435	-0.01196
4.92574	-0.01422
4.95679	-0.01502
4.98783	-0.01212
5.01888	-0.01341
5.03957	-0.01825
5.04992	-0.01277
5.08096	-0.01325
5.11201	-0.01615
5.14305	-0.01631
5.17410	-0.01808
5.21549	-0.01357
5.27758	-0.01406
5.32932	-0.01454
5.39141	-0.01889
5.44315	-0.01277
5.49489	-0.01309
5.54663	-0.01615
5.59837	-0.01406
5.65012	-0.01486
5.70186	-0.01647
5.75360	-0.01857
5.79499	-0.01261
5.83638	-0.01406
5.87778	-0.01825
5.92952	-0.01357
5.97091	-0.01857
6.01230	-0.01535
6.05369	-0.01696
6.08474	-0.01228
6.10544	-0.01760
6.13648	-0.01422
6.15718	-0.01212
6.17787	-0.01325
6.19857	-0.01502
6.21927	-0.01164
6.23996	-0.01373
6.26066	-0.01744
6.28136	-0.01647
6.30205	-0.01712
6.33310	-0.01696
6.36414	-0.01825
6.40553	-0.01808
6.44693	-0.01341
6.48832	-0.01245
6.51936	-0.01438
6.56076	-0.01728
6.59180	-0.01293
6.63319	-0.01486
6.67459	-0.01341
6.72633	-0.01309
6.76772	-0.01454
6.80911	-0.01599
6.84016	-0.01341
6.87120	-0.01535
6.89190	-0.01760
6.92294	-0.01776
6.96434	-0.01647
7.00573	-0.01406
7.03677	-0.01325
7.07817	-0.01776
7.11956	-0.01583
7.16095	-0.01760
7.21269	-0.01663
7.25409	-0.01760
7.29548	-0.01454
7.34722	-0.02115
7.40931	-0.01438
7.46105	-0.01873
7.50244	-0.01567
7.55418	-0.01293
7.61627	-0.01663
7.67836	-0.01712
7.73010	-0.01438
7.78184	-0.01680
7.82324	-0.01744
7.87498	-0.01921
7.92672	-0.01261
7.97846	-0.01841
8.01985	-0.01905
8.06124	-0.01873
8.10264	-0.01647
8.15438	-0.01373
8.20612	-0.01970
8.25786	-0.01631
8.30960	-0.01502
8.35099	-0.02098
8.39239	-0.01631
8.43378	-0.01599
8.47517	-0.01760
8.50622	-0.01148
8.53726	-0.01760
8.56831	-0.01728
8.58900	-0.02050
8.63040	-0.01502
8.66144	-0.01502
8.70283	-0.01760
8.74423	-0.01728
8.78562	-0.01825
8.81666	-0.01518
8.84771	-0.01341
8.88910	-0.01808
8.93049	-0.01486
8.97189	-0.01502
9.01328	-0.01680
9.04432	-0.01712
9.08572	-0.01953
9.12711	-0.01470
9.15815	-0.01535
9.19955	-0.01825
9.23059	-0.02292
9.27198	-0.01551
9.32372	-0.01567
9.36512	-0.01390
9.39616	-0.01583
9.44790	-0.01502
9.48930	-0.01567
9.53069	-0.01873
9.57208	-0.01502
9.62382	-0.01663
9.66522	-0.01438
9.69626	-0.01293
9.72730	-0.01341
9.76870	-0.01873
9.79974	-0.01583
9.84113	-0.01293
9.88253	-0.01647
9.92392	-0.01905
9.97566	-0.01373
10.01705	-0.01309
10.05845	-0.01357
10.09984	-0.01535
10.14123	-0.01583
10.18262	-0.01277
10.21367	-0.01825
10.26541	-0.01067
10.29646	-0.01502
10.32750	-0.01100
10.35854	-0.01825
10.38959	-0.01792
10.42063	-0.01341
10.46203	-0.01486
10.49307	-0.01196
10.53446	-0.01518
10.57586	-0.01631
10.61725	-0.01422
10.65864	-0.01325
10.68969	-0.00938
10.73108	-0.01212
10.77247	-0.01696
10.81386	-0.01518
10.84491	-0.01438
10.88630	-0.01293
10.92770	-0.01535
10.95874	-0.01051
10.98978	-0.01486
11.02083	-0.01470
11.05187	-0.01261
11.09327	-0.01132
11.11396	-0.01228
11.14501	-0.01422
11.16570	-0.01502
11.18640	-0.01438
11.20710	-0.01083
11.22779	-0.01245
11.25884	-0.00971
11.27953	-0.01277
11.30023	-0.01116
11.32093	-0.01035
11.34162	-0.01518
11.37267	-0.01100
11.40371	-0.01309
11.43476	-0.01261
11.46580	-0.01003
11.49685	-0.00890
11.52789	-0.00729
11.56928	-0.01277
11.61068	-0.01132
11.64172	-0.01100
11.66242	-0.01277
11.69346	-0.01003
11.71416	-0.01164
11.73485	-0.01277
11.76590	-0.00761
11.80729	-0.00906
11.83834	-0.01132
11.85903	-0.00890
11.87973	-0.00826
11.91077	-0.01309
11.93147	-0.00471
11.96251	-0.00359
11.99356	-0.00681
12.03495	-0.00681
12.06600	-0.00391
12.09704	-0.00584
12.12809	-0.00536
12.15913	-0.00568
12.19018	-0.00600
12.22122	-0.00246
12.25226	-0.00101
12.29366	-0.00359
12.32470	0.00044
12.34540	0.00125
12.37644	0.00399
12.41784	-0.00165
12.45923	0.00012
12.50062	-0.00036
12.52132	0.00286
12.55236	0.00882
12.57306	0.00383
12.61445	0.00930
12.63515	0.00737
12.65584	0.00866
12.67654	0.00995
12.69724	0.01478
12.71793	0.01317
12.73863	0.01542
12.75933	0.01156
12.78002	0.01430
12.80072	0.01414
12.83176	0.01591
12.86281	0.01929
12.89385	0.01929
12.94559	0.02106
12.97664	0.02461
13.01803	0.01897
13.06977	0.02638
13.11116	0.02912
13.16291	0.03588
13.21465	0.03733
13.26639	0.03798
13.30778	0.04329
13.33882	0.04507
13.36987	0.04893
13.40091	0.04925
13.44231	0.05699
13.47335	0.05699
13.49405	0.05989
13.51474	0.05860
13.53544	0.06440
13.54579	0.07036
13.56649	0.06730
13.59753	0.07294
13.61823	0.07664
13.64927	0.07954
13.66997	0.08276
13.70101	0.08244
13.74240	0.08437
13.77345	0.08856
13.79415	0.09001
13.83554	0.09694
13.86658	0.09791
13.89763	0.10129
13.92867	0.10209
13.98041	0.10419
14.01146	0.10805
14.04250	0.11466
14.08389	0.11385
14.11494	0.12175
14.14598	0.11837
14.18738	0.12561
14.20807	0.12223
14.25981	0.12819
14.29086	0.12996
14.33225	0.13319
14.36330	0.13109
14.41504	0.13560
14.44608	0.13705
14.49782	0.13254
14.52887	0.13834
14.55991	0.13786
14.59096	0.13947
14.61165	0.13576
14.63235	0.13657
14.65305	0.13818
14.67374	0.13866
14.69444	0.13206
14.70479	0.13447
14.72548	0.13367
14.73583	0.13415
14.75653	0.13303
14.77722	0.13415
14.79792	0.12996
14.81862	0.13125
14.83931	0.12835
14.86001	0.12497
14.87036	0.12851
14.89105	0.12529
14.91175	0.12223
14.94280	0.11998
14.96349	0.12014
14.98419	0.11917
15.01523	0.11675
15.03593	0.11337
15.05663	0.11160
15.08767	0.11257
15.11871	0.10999
15.14976	0.10950
15.18080	0.10596
15.21185	0.10838
15.23254	0.09952
15.25324	0.10177
15.27394	0.09581
15.29463	0.09517
15.31533	0.09017
15.34637	0.09404
15.37742	0.09130
15.39812	0.08888
15.41881	0.08743
15.43951	0.08341
15.46020	0.08276
15.48090	0.07890
15.50160	0.07729
15.52229	0.07390
15.54299	0.07197
15.57404	0.07567
15.60508	0.07165
15.62578	0.06939
15.65682	0.06762
15.67752	0.06166
15.70856	0.05650
15.73961	0.05683
15.76030	0.05280
15.79135	0.05409
15.81204	0.05280
15.83274	0.05006
15.85344	0.04474
15.87413	0.04507
15.90518	0.04345
15.93622	0.03846
15.97761	0.03975
16.00866	0.03814
16.03970	0.03701
16.07075	0.03250
16.10179	0.03459
16.14319	0.02815
16.18458	0.02525
16.22597	0.01865
16.25702	0.02187
16.28806	0.01752
16.31911	0.01961
16.36050	0.01478
16.39154	0.01816
16.41224	0.01301
16.44328	0.01220
16.48468	0.00850
16.52607	0.01043
16.57781	0.00399
16.62955	0.00431
16.68129	0.00286
16.73303	0.00060
16.78477	-0.00310
16.83652	-0.00101
16.88826	-0.00020
16.94000	-0.00133
16.97104	-0.00375
17.01243	-0.00890
17.04348	-0.00794
17.07452	-0.00729
17.10557	-0.01245
17.13661	-0.00922
17.16766	-0.00858
17.19870	-0.00761
17.22975	-0.01164
17.25044	-0.01357
17.28149	-0.01502
17.30218	-0.01196
17.32288	-0.01261
17.34358	-0.01406
17.38497	-0.01212
17.42636	-0.01551
17.46776	-0.01293
17.49880	-0.01341
17.54019	-0.01293
17.57124	-0.01148
17.60228	-0.01567
17.65402	-0.01454
17.69542	-0.01293
17.73681	-0.01035
17.77820	-0.01680
17.81959	-0.01454
17.86099	-0.01390
17.89203	-0.01599
17.92308	-0.01422
17.96447	-0.01615
18.00586	-0.01277
18.04725	-0.01599
18.08865	-0.01696
18.13004	-0.01261
18.17143	-0.01454
18.20248	-0.01261
18.24387	-0.01970
18.28526	-0.01551
18.32666	-0.01196
18.35770	-0.01341
18.39909	-0.01148
18.43014	-0.01760
18.46118	-0.01003
18.47153	-0.01406
18.48188	-0.01164
18.48188	-0.01663
18.48188	-0.01470
18.49223	-0.01357
18.49223	-0.00842
18.49223	-0.01067
18.49223	-0.01261
18.49223	-0.01390
18.49223	-0.01357
18.49223	-0.01148
18.49223	-0.01212
18.49223	-0.01245
18.49223	-0.01373
18.50257	-0.01212
18.50257	-0.01261
18.50257	-0.01116
18.52327	-0.01470
18.53362	-0.01019
18.60606	-0.01132
18.66815	-0.01277
18.68884	-0.01309
18.69919	-0.00858
18.70954	-0.01293
18.70954	-0.00922
18.71989	-0.01293
18.73023	-0.01567
18.75093	-0.01663
18.77163	-0.01277
18.79232	-0.01261
18.81302	-0.01164
18.83372	-0.01438
18.85441	-0.01518
18.88546	-0.01518
18.91650	-0.01325
18.93720	-0.01261
18.97859	-0.01083
19.01998	-0.01228
19.05103	-0.01245
19.08207	-0.00874
19.10277	-0.01132
19.12347	-0.01100
19.15451	-0.01438
19.16486	-0.00938
19.20625	-0.00971
19.24764	-0.01148
19.28904	-0.00955
19.33043	-0.00826
19.35113	-0.01180
19.40287	-0.01003
19.44426	-0.00729
19.48565	-0.01132
19.52705	-0.01035
19.56844	-0.01116
19.60983	-0.00584
19.65122	-0.01502
19.68227	-0.01100
19.71331	-0.01100
19.75471	-0.00955
19.78575	-0.01341
19.81680	-0.01148
19.84784	-0.01116
19.87888	-0.00874
19.92028	-0.01470
19.95132	-0.00955
19.98237	-0.01486
20.01341	-0.01116
20.03411	-0.01003
20.06515	-0.01406
20.08585	-0.00890
20.10655	-0.01325
20.13759	-0.01535
20.16863	-0.01357
20.17898	-0.01680
20.18933	-0.01148
20.21003	-0.01180
20.23072	-0.01390
20.25142	-0.01454
20.27212	-0.01116
20.29281	-0.01341
20.32386	-0.01341
20.34455	-0.01196
20.36525	-0.01212
20.39629	-0.01277
20.42734	-0.00955
20.44804	-0.01277
20.47908	-0.01680
20.51012	-0.01067
20.54117	-0.00955
20.57221	-0.01631
20.59291	-0.01019
20.61361	-0.01132
20.63430	-0.01647
20.66535	-0.01067
20.68604	-0.01196
20.71709	-0.01083
20.74813	-0.00955
20.76883	-0.01325
20.78953	-0.01502
20.81022	-0.01422
20.82057	-0.01035
20.85162	-0.01180
20.87231	-0.00890
20.89301	-0.01100
20.92405	-0.00794
20.95510	-0.01148
20.99649	-0.01245
21.02753	-0.01164
21.05858	-0.01148
21.08962	-0.00681
21.12067	-0.00922
21.13102	-0.00697
21.16206	-0.01422
21.18276	-0.01003
21.21380	-0.01003
21.22415	-0.00616
21.24485	-0.01438
21.26554	-0.01325
21.29659	-0.01051
21.32763	-0.01583
21.36902	-0.00938
21.41042	-0.01277
21.46216	-0.01245
21.50355	-0.00971
21.54494	-0.01100
21.59669	-0.00890
21.64843	-0.01148
21.70017	-0.01116
21.75191	-0.00536
21.81400	-0.01196
21.86574	-0.01261
21.91748	-0.01212
21.94852	-0.01277
21.98992	-0.01309
22.03131	-0.01212
22.07270	-0.01212
22.10375	-0.01035
22.13479	-0.00938
22.17618	-0.01341
22.20723	-0.01357
22.23827	-0.01212
22.25897	-0.01422
22.27967	-0.01470
22.30036	-0.00729
22.33141	-0.00632
22.35210	-0.01245
22.38315	-0.01164
22.40384	-0.00810
22.42454	-0.00987
22.44524	-0.01357
22.47628	-0.01422
22.50733	-0.01631
22.52802	-0.01341
22.55907	-0.01067
22.57976	-0.01245
22.60046	-0.00874
22.61081	-0.01019
22.63150	-0.01100
22.65220	-0.01277
22.66255	-0.01164
22.69359	-0.01454
22.71429	-0.01535
22.73499	-0.01051
22.75568	-0.01406
22.78673	-0.01293
22.80742	-0.01003
22.82812	-0.01100
22.85917	-0.01422
22.87986	-0.01212
22.91091	-0.00874
22.93160	-0.01116
22.95230	-0.01196
22.97300	-0.01100
22.99369	-0.01228
23.01439	-0.01357
23.04543	-0.01373
23.07648	-0.01663
23.09717	-0.01164
23.12822	-0.01309
23.14891	-0.01019
23.16961	-0.01261
23.17996	-0.01116
23.20066	-0.01293
23.21100	-0.01019
23.24205	-0.01245
23.26274	-0.00938
23.30414	-0.01390
23.33518	-0.01164
23.36623	-0.01390
23.39727	-0.01438
23.41797	-0.01164
23.43866	-0.01100
23.45936	-0.01100
23.49041	-0.00487
23.51110	-0.00794
23.54215	-0.01245
23.55249	-0.01309
23.57319	-0.01019
23.60424	-0.01518
23.62493	-0.01857
23.64563	-0.01341
23.66632	-0.00955
23.68702	-0.01132
23.70772	-0.01067
23.72841	-0.00955
23.74911	-0.01309
23.76981	-0.01309
23.79050	-0.01470
23.81120	-0.01438
23.83190	-0.01567
23.86294	-0.01341
23.89398	-0.01035
23.92503	-0.01696
23.95607	-0.01083
23.98712	-0.01551
24.01816	-0.00906
24.04921	-0.00874
24.09060	-0.00810
24.11130	-0.01164
24.14234	-0.00713
24.17339	-0.01035
24.20443	-0.00842
24.22513	-0.01325
24.24582	-0.01841
24.26652	-0.01083
24.28722	-0.01132
24.31826	-0.01148
24.34931	-0.01019
24.37000	-0.01228
24.41139	-0.00874
24.43209	-0.00632
24.45279	-0.01051
24.48383	-0.00987
24.50453	-0.01454
24.52522	-0.00842
24.54592	-0.01132
24.56662	-0.01357
24.58731	-0.01277
24.59766	-0.01212
24.61836	-0.01212
24.64940	-0.00938
24.67010	-0.01196
24.69080	-0.01212
24.71149	-0.00971
24.74254	-0.01019
24.76323	-0.00987
24.79428	-0.00922
24.82532	-0.01180
24.84602	-0.00729
24.86672	-0.01164
24.87706	-0.00922
24.89776	-0.00729
24.91846	-0.01438
24.93915	-0.01067
24.97020	-0.01228
24.99089	-0.01035
25.01159	-0.00826
25.03229	-0.00906
25.05298	-0.01132
25.07368	-0.01051
25.10472	-0.01261
25.13577	-0.01196
25.15646	-0.00922
25.17716	-0.01228
25.20821	-0.00971
25.21855	-0.01277
25.24960	-0.01180
25.27029	-0.01390
25.28064	-0.01196
25.31169	-0.00826
25.33238	-0.01196
25.35308	-0.00955
25.37378	-0.00987
25.40482	-0.01164
25.41517	-0.00794
25.44621	-0.01019
25.46691	-0.01019
25.48761	-0.00826
25.50830	-0.01051
25.51865	-0.01647
25.53935	-0.01067
25.56004	-0.00971
25.58074	-0.00938
25.59109	-0.01196
25.61179	-0.01051
25.63248	-0.00955
25.65318	-0.01051
25.67387	-0.00987
25.69457	-0.00745
25.71527	-0.01293
25.73596	-0.00729
25.74631	-0.01148
25.75666	-0.00858
25.77736	-0.01100
25.78770	-0.01148
25.80840	-0.01406
25.83945	-0.01035
25.86014	-0.01406
25.88084	-0.01035
25.91188	-0.01051
25.93258	-0.00938
25.96362	-0.01148
25.99467	-0.01567
26.02571	-0.01148
26.04641	-0.01373
26.06711	-0.01212
26.08780	-0.00826
26.10850	-0.00938
26.12920	-0.01132
26.13954	-0.01261
26.16024	-0.00987
26.18094	-0.01035
26.20163	-0.01019
26.21198	-0.00874
26.23268	-0.00632
26.25337	-0.00955
26.27407	-0.00826
26.29477	-0.01067
26.32581	-0.01180
26.35686	-0.00955
26.39825	-0.01196
26.42929	-0.01502
26.47069	-0.01035
26.51208	-0.01261
26.56382	-0.01583
26.60521	-0.01083
26.65695	-0.00890
26.69835	-0.01019
26.73974	-0.00697
26.76044	-0.00342
26.79148	-0.00729
26.81218	-0.01116
26.83287	-0.00632
26.85357	-0.01245
26.87427	-0.01309
26.88461	-0.01261
26.89496	-0.00906
26.91566	-0.01228
26.91566	-0.01100
26.92601	-0.01051
26.94670	-0.00987
26.95705	-0.01357
26.97775	-0.01083
26.98810	-0.00568
27.00879	-0.01309
27.02949	-0.00922
27.06053	-0.00761
27.08123	-0.00922
27.11227	-0.00600
27.14332	-0.00826
27.16401	-0.01164
27.19506	-0.01148
27.22610	-0.01293
27.24680	-0.01277
27.27784	-0.01148
27.29854	-0.01277
27.32959	-0.01003
27.35028	-0.01325
27.37098	-0.01148
27.40202	-0.01164
27.42272	-0.00810
27.44342	-0.01164
27.46411	-0.00874
27.49516	-0.00858
27.52620	-0.01357
27.55725	-0.00938
27.58829	-0.01100
27.61934	-0.01067
27.65038	-0.01325
27.68142	-0.00987
27.71247	-0.01309
27.75386	-0.01019
27.78491	-0.00890
27.81595	-0.00729
27.84700	-0.00858
27.88839	-0.01164
27.92978	-0.01003
27.96083	-0.01196
28.00222	-0.01277
28.03326	-0.01180
28.06431	-0.01277
28.09535	-0.01164
28.13675	-0.00777
28.16779	-0.01357
28.18849	-0.01261
28.21953	-0.00987
28.25058	-0.00922
28.28162	-0.01212
28.31266	-0.00906
28.35406	-0.01116
28.38510	-0.01035
28.41615	-0.01003
28.44719	-0.00906
28.47824	-0.01116
28.50928	-0.00810
28.52998	-0.01100
28.56102	-0.01051
28.58172	-0.00858
28.61276	-0.00777
28.64381	-0.00810
28.67485	-0.01035
28.70590	-0.00471
28.73694	-0.00874
28.76799	-0.00552
28.79903	-0.01309
28.84042	-0.00761
28.87147	-0.00713
28.90251	-0.00971
28.94390	-0.00874
28.98530	-0.00938
29.02669	-0.00858
29.06808	-0.01325
29.09913	-0.00955
29.13017	-0.00971
29.16122	-0.01051
29.19226	-0.00874
29.22331	-0.01325
29.24400	-0.00906
29.27505	-0.00890
29.29574	-0.01325
29.32679	-0.00761
29.35783	-0.00890
29.37853	-0.01228
29.39923	-0.00777
29.41992	-0.01309
29.44062	-0.00729
29.46131	-0.00826
29.48201	-0.00713
29.50271	-0.00890
29.52340	-0.01180
29.54410	-0.00681
29.56480	-0.01228
29.59584	-0.01051
29.63723	-0.01212
29.66828	-0.01051
29.69932	-0.00761
29.72002	-0.01277
29.74072	-0.00826
29.77176	-0.01083
29.79246	-0.00810
29.81315	-0.00890
29.83385	-0.00858
29.86489	-0.01100
29.88559	-0.00777
29.90629	-0.00777
29.93733	-0.01035
29.95803	-0.00922
29.97872	-0.00745
29.99942	-0.00649
30.02012	-0.00842
30.04081	-0.00520
30.07186	-0.00874
30.09255	-0.00987
30.11325	-0.00552
30.14430	-0.00713
30.17534	-0.00987
30.19604	-0.00600
30.22708	-0.00616
30.24778	-0.00713
30.26847	-0.00536
30.28917	-0.01003
30.30987	-0.00971
30.34091	-0.00616
30.36161	-0.00568
30.38230	-0.00794
30.40300	-0.00520
30.42370	-0.01083
30.44439	-0.00600
30.46509	-0.00342
30.49613	-0.00600
30.51683	-0.00665
30.53753	-0.00922
30.55822	-0.00697
30.57892	-0.00938
30.59962	-0.00487
30.63066	-0.00761
30.66171	-0.00810
30.69275	-0.00407
30.73414	-0.00681
30.76519	-0.00777
30.80658	-0.01132
30.84797	-0.00777
30.87902	-0.00681
30.92041	-0.00906
30.95145	-0.00439
30.99285	-0.00536
31.03424	-0.00842
31.07563	-0.00874
31.10668	-0.00794
31.13772	-0.00922
31.16877	-0.00794
31.18946	-0.01019
31.22051	-0.00455
31.26190	-0.00745
31.29295	-0.01067
31.32399	-0.00616
31.35503	-0.00810
31.39643	-0.00729
31.43782	-0.00842
31.47921	-0.00439
31.51026	-0.00890
31.54130	-0.00955
31.58269	-0.00858
31.61374	-0.00487
31.65513	-0.00632
31.69652	-0.00794
31.73792	-0.00584
31.77931	-0.01277
31.81035	-0.00713
31.84140	-0.00520
31.88279	-0.00971
31.90349	-0.00955
31.92418	-0.00616
31.94488	-0.00906
31.97593	-0.00536
32.00697	-0.01132
32.03802	-0.00697
32.06906	-0.00616
32.10010	-0.01003
32.13115	-0.01148
32.16219	-0.01019
32.20359	-0.00777
32.24498	-0.00584
32.27602	-0.00504
32.30707	-0.00842
32.33811	-0.00697
32.36916	-0.01212
32.40020	-0.00777
32.43125	-0.00810
32.45194	-0.00665
32.48299	-0.00858
32.51403	-0.01035
32.54508	-0.00955
32.58647	-0.00810
32.61751	-0.00729
32.64856	-0.00890
32.67960	-0.00729
32.71065	-0.01019
32.74169	-0.00310
32.77274	-0.00794
32.80378	-0.01003
32.83483	-0.00584
32.86587	-0.00713
32.90726	-0.00890
32.93831	-0.00890
32.97970	-0.00745
33.01075	-0.00455
33.05214	-0.01100
33.09353	-0.00794
33.12458	-0.01357
33.15562	-0.01245
33.18666	-0.01132
33.21771	-0.01164
33.24875	-0.00874
33.26945	-0.00810
33.30050	-0.00874
33.31084	-0.00938
33.33154	-0.00890
33.35224	-0.01212
33.38328	-0.00874
33.41433	-0.00971
33.44537	-0.00665
33.48676	-0.01100
33.51781	-0.00858
33.54885	-0.01067
33.59024	-0.00890
33.62129	-0.01277
33.64199	-0.01132
33.68338	-0.01019
33.70407	-0.01019
33.73512	-0.01132
33.75582	-0.01035
33.78686	-0.00938
33.81790	-0.01035
33.84895	-0.00987
33.86965	-0.00794
33.91104	-0.00761
33.94208	-0.00955
33.97313	-0.00713
34.01452	-0.00536
34.05591	-0.00713
34.09731	-0.00665
34.13870	-0.00745
34.19044	-0.01148
34.23183	-0.01245
34.26288	-0.00761
34.30427	-0.00874
34.33531	-0.00536
34.36636	-0.00922
34.39740	-0.01067
34.43880	-0.00810
34.46984	-0.01003
34.50089	-0.00745
34.53193	-0.01228
34.56297	-0.01212
34.59402	-0.00729
34.62506	-0.00536
34.65611	-0.00955
34.68715	-0.01035
34.70785	-0.00922
34.73889	-0.00874
34.75959	-0.00858
34.78029	-0.01083
34.80098	-0.00504
34.82168	-0.00890
34.85272	-0.00938
34.87342	-0.00906
34.90447	-0.00713
34.92516	-0.01245
34.95621	-0.00729
34.98725	-0.00777
35.00795	-0.00922
35.02864	-0.01051
35.04934	-0.00971
35.07004	-0.01180
35.09073	-0.00713
35.12178	-0.01390
35.14247	-0.00794
35.16317	-0.00890
35.18387	-0.00922
35.19421	-0.00890
35.21491	-0.01100
35.23561	-0.01406
35.25630	-0.00794
35.27700	-0.00729
35.30805	-0.01067
35.32874	-0.01196
35.34944	-0.00826
35.38048	-0.00955
35.40118	-0.00971
35.42188	-0.00938
35.45292	-0.01470
35.48396	-0.00938
35.51501	-0.01164
35.53571	-0.01196
35.57710	-0.00955
35.60814	-0.00955
35.63919	-0.01003
35.67023	-0.00697
35.70128	-0.01277
35.73232	-0.00697
35.75302	-0.00810
35.77371	-0.00955
35.80476	-0.01067
35.83580	-0.01100
35.87720	-0.00922
35.90824	-0.00987
35.93929	-0.01019
35.97033	-0.00810
36.01172	-0.01341
36.03242	-0.00632
36.06346	-0.01454
36.10486	-0.01212
36.14625	-0.00987
36.18764	-0.01663
36.22903	-0.01373
36.26008	-0.00810
36.30147	-0.00842
36.34286	-0.00665
36.38426	-0.00971
36.42565	-0.00971
36.46704	-0.01470
36.49809	-0.01019
36.53948	-0.01019
36.58087	-0.01406
36.60157	-0.00922
36.63261	-0.01196
36.67401	-0.00987
36.71540	-0.01003
36.75679	-0.01277
36.79819	-0.01116
36.82923	-0.00649
36.87062	-0.00745
36.91202	-0.00681
36.95341	-0.00649
36.99480	-0.01293
37.02585	-0.00890
37.05689	-0.00938
37.09828	-0.00971
37.12933	-0.00600
37.16037	-0.00938
37.18107	-0.00906
37.21211	-0.00955
37.23281	-0.01132
37.25351	-0.01003
37.27420	-0.00697
37.29490	-0.01035
37.31560	-0.01083
37.34664	-0.00906
37.36734	-0.00890
37.39838	-0.00649
37.42943	-0.00681
37.45012	-0.00938
37.48117	-0.00842
37.51221	-0.00890
37.54326	-0.01019
37.56395	-0.00906
37.59500	-0.00600
37.63639	-0.00584
37.66743	-0.00729
37.69848	-0.00858
37.71917	-0.00810
37.75022	-0.00600
37.77092	-0.00616
37.79161	-0.00890
37.80196	-0.00938
37.82266	-0.00874
37.83300	-0.00552
37.86405	-0.00938
37.88475	-0.00955
37.90544	-0.00987
37.92614	-0.00874
37.94684	-0.00713
37.97788	-0.00745
37.99858	-0.00729
38.01927	-0.01357
38.03997	-0.00890
38.06067	-0.00842
38.09171	-0.00922
38.11241	-0.00874
38.13310	-0.00971
38.15380	-0.00632
38.17450	-0.00906
38.20554	-0.00487
38.23658	-0.00922
38.26763	-0.01083
38.29867	-0.00552
38.32972	-0.00697
38.36076	-0.00971
38.40216	-0.01373
38.43320	-0.00955
38.46424	-0.01212
38.49529	-0.00906
38.53668	-0.00906
38.56773	-0.01293
38.58842	-0.00971
38.61947	-0.01100
38.64016	-0.01035
38.66086	-0.00890
38.68156	-0.01196
38.70225	-0.00858
38.72295	-0.01212
38.74365	-0.01180
38.75399	-0.00955
38.78504	-0.01277
38.80574	-0.00922
38.82643	-0.01067
38.85748	-0.00955
38.88852	-0.01019
38.90922	-0.00922
38.95061	-0.01357
38.98165	-0.01100
39.01270	-0.01051
39.03340	-0.00922
39.05409	-0.01164
39.06444	-0.00713
39.08514	-0.00938
39.10583	-0.01100
39.11618	-0.01019
39.13688	-0.00987
39.14723	-0.01373
39.16792	-0.01341
39.17827	-0.01116
39.19897	-0.01309
39.21966	-0.01261
39.24036	-0.01261
39.27140	-0.01422
39.29210	-0.00810
39.31280	-0.00761
39.33349	-0.00971
39.35419	-0.01180
39.37489	-0.01035
39.40593	-0.01116
39.43698	-0.01180
39.48872	-0.00890
39.53011	-0.01132
39.58185	-0.01116
39.62324	-0.00858
39.66464	-0.01261
39.71638	-0.01116
39.76812	-0.01470
39.81986	-0.00971
39.87160	-0.01196
39.92334	-0.01164
39.98543	-0.00922
40.03717	-0.01051
40.07856	-0.01067
40.11996	-0.01454
40.16135	-0.01067
40.21309	-0.00890
40.26483	-0.00858
40.31657	-0.00906
40.35796	-0.01148
40.40971	-0.01180
40.44075	-0.00600
40.48214	-0.00938
40.52354	-0.01245
40.56493	-0.01680
40.59597	-0.01325
40.62702	-0.01422
40.65806	-0.00810
40.69946	-0.01083
40.74085	-0.01116
40.77189	-0.01261
40.80294	-0.01148
40.83398	-0.01245
40.86503	-0.01567
40.88572	-0.01309
40.91677	-0.00955
40.94781	-0.00858
40.96851	-0.01567
40.99955	-0.00520
41.03060	-0.01245
41.05129	-0.01212
41.08234	-0.01132
41.11338	-0.01100
41.14443	-0.01245
41.17547	-0.01051
41.20652	-0.01196
41.23756	-0.01148
41.27895	-0.01373
41.31000	-0.01164
41.34104	-0.01551
41.37209	-0.01502
41.40313	-0.01406
41.43418	-0.01035
41.46522	-0.01341
41.49627	-0.01116
41.52731	-0.01663
41.55836	-0.01245
41.58940	-0.01841
41.62044	-0.01116
41.65149	-0.01422
41.67219	-0.01373
41.70323	-0.01341
41.73427	-0.01438
41.77567	-0.00971
41.81706	-0.01599
41.84811	-0.00987
41.88950	-0.01035
41.93089	-0.01518
41.96194	-0.01067
42.00333	-0.01309
42.04472	-0.01341
42.07577	-0.01325
42.11716	-0.01116
42.14820	-0.01228
42.17925	-0.01309
42.21029	-0.01470
42.24134	-0.01406
42.28273	-0.01196
42.31377	-0.00777
42.35517	-0.01293
42.38621	-0.01293
42.41726	-0.01390
42.43795	-0.01341
42.47935	-0.01309
42.51039	-0.01019
42.54143	-0.01357
42.57248	-0.01518
42.59318	-0.01357
42.62422	-0.01309
42.66561	-0.01373
42.69666	-0.01583
42.72770	-0.01180
42.76909	-0.01277
42.81049	-0.01438
42.84153	-0.01083
42.88292	-0.01019
42.91397	-0.00987
42.95536	-0.01051
42.98641	-0.00955
43.01745	-0.01051
43.04850	-0.01277
43.07954	-0.01180
43.11058	-0.01261
43.14163	-0.01583
43.16233	-0.01277
43.18302	-0.00842
43.19337	-0.01390
43.21407	-0.01035
43.23476	-0.01035
43.24511	-0.01035
43.25546	-0.01180
43.26581	-0.01518
43.27616	-0.01212
43.29685	-0.01293
43.30720	-0.01921
43.31755	-0.01293
43.34859	-0.01373
43.35894	-0.01100
43.37964	-0.01019
43.41068	-0.01132
43.45208	-0.01518
43.48312	-0.01245
43.50382	-0.01100
43.53486	-0.01180
43.55556	-0.00858
43.57625	-0.01438
43.60730	-0.01357
43.63834	-0.01180
43.66939	-0.01196
43.69008	-0.00922
43.72113	-0.01341
43.75217	-0.01390
43.77287	-0.01132
43.79357	-0.01406
43.82461	-0.01454
43.85566	-0.01341
43.87635	-0.01470
43.89705	-0.00971
43.90740	-0.00794
43.92809	-0.00987
43.95914	-0.00858
43.97983	-0.00681
44.01088	-0.01035
44.03157	-0.01164
44.05227	-0.01357
44.07297	-0.01341
44.10401	-0.01132
44.13506	-0.00987
44.15575	-0.00922
44.18680	-0.01422
44.20749	-0.01325
44.23854	-0.01003
44.26958	-0.01422
44.29028	-0.01470
44.33167	-0.01341
44.36272	-0.00906
44.40411	-0.00922
44.44550	-0.01228
44.49724	-0.00729
44.53864	-0.01100
44.58003	-0.00987
44.63177	-0.00697
44.68351	-0.00955
44.71456	-0.01180
44.74560	-0.00874
44.77664	-0.01212
44.80769	-0.00971
44.84908	-0.00955
44.88013	-0.01325
44.90082	-0.00938
44.93187	-0.01083
44.95256	-0.01083
44.98361	-0.01341
45.00430	-0.00938
45.03535	-0.00906
45.06639	-0.00761
45.09744	-0.00890
45.13883	-0.00922
45.18022	-0.00600
45.22162	-0.01083
45.26301	-0.01148
45.30440	-0.00906
45.35614	-0.00874
45.39754	-0.00729
45.43893	-0.01228
45.48032	-0.00810
45.52171	-0.00826
45.56311	-0.01422
45.59415	-0.00955
45.62520	-0.00794
45.65624	-0.00874
45.68729	-0.00761
45.72868	-0.00890
45.77007	-0.00858
45.80112	-0.01212
45.83216	-0.00584
45.86321	-0.01357
45.90460	-0.01067
45.94599	-0.00745
45.97704	-0.00906
46.01843	-0.01003
46.05982	-0.00713
46.10121	-0.00842
46.14261	-0.01228
46.17365	-0.00632
46.20470	-0.00810
46.23574	-0.00681
46.27713	-0.01100
46.29783	-0.00745
46.32887	-0.01196
46.34957	-0.00681
46.37027	-0.01083
46.39096	-0.00616
46.41166	-0.01100
46.44270	-0.01051
46.47375	-0.01148
46.51514	-0.00713
46.55653	-0.00987
46.59793	-0.00713
46.63932	-0.00697
46.67036	-0.00810
46.70141	-0.00971
46.74280	-0.00874
46.78419	-0.00777
46.82559	-0.00777
46.86698	-0.00810
46.89802	-0.00649
46.92907	-0.00842
46.97046	-0.00713
47.00151	-0.00391
47.03255	-0.01148
47.06360	-0.00810
47.10499	-0.00761
47.12569	-0.00584
47.15673	-0.00906
47.19812	-0.00810
47.23952	-0.01051
47.28091	-0.00826
47.31195	-0.00987
47.35335	-0.00697
47.38439	-0.00858
47.41543	-0.00826
47.44648	-0.00665
47.47752	-0.00713
47.50857	-0.01003
47.53961	-0.00616
47.56031	-0.00906
47.58101	-0.00487
47.61205	-0.01180
47.63275	-0.00729
47.65344	-0.00504
47.67414	-0.00665
47.69484	-0.00826
47.71553	-0.00665
47.73623	-0.00729
47.75693	-0.00955
47.77762	-0.00439
47.80867	-0.00794
47.85006	-0.00906
47.88110	-0.00616
47.91215	-0.00278
47.94319	-0.00922
47.97424	-0.00600
48.00528	-0.00745
48.03633	-0.00359
48.07772	-0.00987
48.11911	-0.00568
48.16050	-0.00971
48.20190	-0.00359
48.24329	-0.00922
48.27433	-0.00487
48.31573	-0.00810
48.34677	-0.00359
48.37782	-0.00761
48.41921	-0.00487
48.45025	-0.00826
48.49165	-0.00616
48.53304	-0.00906
48.57443	-0.00971
48.61583	-0.00987
48.65722	-0.00632
48.69861	-0.01228
48.72966	-0.00520
48.77105	-0.00697
48.80209	-0.00649
48.83314	-0.00955
48.87453	-0.00729
48.90557	-0.01035
48.94697	-0.00922
48.98836	-0.00890
49.01940	-0.00842
49.06080	-0.00922
49.09184	-0.01325
49.13324	-0.00181
49.17463	-0.00922
49.21602	-0.00632
49.24707	-0.00971
49.27811	-0.00697
49.31950	-0.00810
49.35055	-0.00906
49.38159	-0.00777
49.41264	-0.00810
49.43333	-0.00955
49.45403	-0.00761
49.48507	-0.00906
49.51612	-0.00874
49.54716	-0.00649
49.57821	-0.00955
49.60925	-0.00761
49.64030	-0.00777
49.67134	-0.01051
49.72308	-0.00955
49.77482	-0.00987
49.82656	-0.00584
49.87831	-0.00729
49.93005	-0.00697
49.98179	-0.00858
50.02318	-0.00439
50.06457	-0.01100
50.10597	-0.00955
50.14736	-0.01019
50.18875	-0.01019
50.24049	-0.00955
50.26119	-0.01406
50.30258	-0.01035
50.33363	-0.00971
50.37502	-0.00906
50.41641	-0.01164
50.44746	-0.00922
50.47850	-0.00761
50.51989	-0.00810
50.56129	-0.01228
50.59233	-0.00971
50.62338	-0.01019
50.66477	-0.00906
50.70616	-0.01019
50.74755	-0.01035
50.77860	-0.01003
50.80964	-0.00955
50.85104	-0.01228
50.88208	-0.00874
50.91312	-0.01228
50.94417	-0.00713
50.97521	-0.01357
50.99591	-0.00842
51.02695	-0.01051
51.06835	-0.00584
51.10974	-0.00745
51.15113	-0.00955
51.18218	-0.00987
51.22357	-0.00681
51.25462	-0.00890
51.29601	-0.01100
51.33740	-0.00810
51.37879	-0.00874
51.42019	-0.00842
51.45123	-0.00826
51.49262	-0.01293
51.52367	-0.00745
51.56506	-0.00906
51.60645	-0.00874
51.64785	-0.00826
51.67889	-0.00632
51.70994	-0.00794
51.75133	-0.00971
51.78237	-0.00729
51.81342	-0.00810
51.85481	-0.00890
51.89620	-0.00681
51.93760	-0.01003
51.96864	-0.00777
52.01003	-0.00987
52.05143	-0.01035
52.07212	-0.01019
52.10317	-0.00890
52.13421	-0.00874
52.17560	-0.00584
52.20665	-0.01051
52.23769	-0.01406
52.26874	-0.01019
52.31013	-0.01083
52.34118	-0.00874
52.36187	-0.00826
52.38257	-0.00681
52.41361	-0.00938
52.43431	-0.00681
52.47570	-0.01341
52.52744	-0.00922
52.57918	-0.01180
52.63093	-0.01083
52.68267	-0.00987
52.73441	-0.00858
52.78615	-0.00794
52.83789	-0.01003
52.87928	-0.01277
52.93102	-0.00729
52.96207	-0.00922
52.99311	-0.00938
53.02416	-0.01212
53.06555	-0.00938
53.09659	-0.01277
53.12764	-0.01261
53.16903	-0.00858
53.21042	-0.00906
53.24147	-0.00842
53.29321	-0.01035
53.33460	-0.00810
53.38634	-0.00761
53.42774	-0.00794
53.47948	-0.01100
53.53122	-0.00745
53.58296	-0.00987
53.63470	-0.00729
53.68644	-0.01116
53.72783	-0.00826
53.76923	-0.00938
53.80027	-0.00697
53.84166	-0.00681
53.88306	-0.00810
53.91410	-0.00938
53.95549	-0.00794
53.99689	-0.01164
54.03828	-0.01164
54.06932	-0.01148
54.09002	-0.01245
54.11072	-0.00536
54.14176	-0.00922
54.17281	-0.01373
54.21420	-0.01245
54.25559	-0.01212
54.29698	-0.00858
54.32803	-0.01067
54.36942	-0.01116
54.40047	-0.01100
54.42116	-0.01132
54.46256	-0.00826
54.49360	-0.00874
54.52465	-0.01180
54.54534	-0.00890
54.57639	-0.01051
54.60743	-0.01390
54.63848	-0.00874
54.66952	-0.00842
54.70056	-0.01196
54.75231	-0.01212
54.79370	-0.01164
54.82474	-0.00922
54.85579	-0.01228
54.89718	-0.00632
54.92822	-0.00858
54.95927	-0.00922
55.00066	-0.00520
55.03171	-0.00938
55.07310	-0.00842
55.10414	-0.01067
55.14554	-0.00665
55.19728	-0.00439
55.23867	-0.01164
55.28006	-0.00971
55.32146	-0.01615
55.35250	-0.01164
55.39389	-0.00987
55.43529	-0.01132
55.47668	-0.00375
55.51807	-0.00826
55.54912	-0.00874
55.58016	-0.00858
55.62155	-0.00713
55.65260	-0.01341
55.69399	-0.00971
55.73538	-0.00858
55.78713	-0.01067
55.82852	-0.00971
55.85956	-0.00632
55.90096	-0.01003
55.94235	-0.00794
55.97339	-0.01132
56.01479	-0.00794
56.05618	-0.01245
56.09757	-0.00761
56.13896	-0.00777
56.18036	-0.01083
56.20105	-0.00761
56.23210	-0.00938
56.26314	-0.00777
56.30453	-0.00987
56.34593	-0.00600
56.38732	-0.01148
56.42871	-0.01341
56.47011	-0.00987
56.50115	-0.01551
56.54254	-0.00761
56.58394	-0.01051
56.61498	-0.00874
56.65637	-0.01100
56.68742	-0.01196
56.72881	-0.00826
56.77020	-0.00794
56.81160	-0.00955
56.85299	-0.00745
56.89438	-0.00922
56.93577	-0.00842
56.97717	-0.00794
57.01856	-0.01116
57.05995	-0.00922
57.10135	-0.01067
57.14274	-0.00552
57.18413	-0.00729
57.23587	-0.01083
57.28761	-0.00826
57.34970	-0.00794
57.42214	-0.00665
57.48423	-0.01083
57.53597	-0.01132
57.59806	-0.01035
57.64980	-0.00874
57.69119	-0.00777
57.74293	-0.01212
57.77398	-0.00584
57.80502	-0.01261
57.84642	-0.00777
57.86711	-0.00955
57.89816	-0.00665
57.91885	-0.00761
57.93955	-0.01003
57.96025	-0.00761
57.98094	-0.00649
57.99129	-0.00922
58.01199	-0.01019
58.03268	-0.00874
58.05338	-0.01067
58.09477	-0.01132
58.13617	-0.00455
58.17756	-0.01116
58.22930	-0.00552
58.27069	-0.00536
58.31209	-0.00777
58.35348	-0.00713
58.39487	-0.00729
58.44661	-0.00858
58.48800	-0.00826
58.52940	-0.00874
58.56044	-0.00713
58.60183	-0.00810
58.63288	-0.00729
58.66392	-0.00810
58.69497	-0.00584
58.72601	-0.00745
58.75706	-0.00794
58.79845	-0.01003
58.82949	-0.00842
58.86054	-0.01035
58.89158	-0.01180
58.92263	-0.00681
58.95367	-0.00955
58.97437	-0.00922
59.01576	-0.00616
59.04681	-0.00649
59.07785	-0.00536
59.10890	-0.01035
59.15029	-0.00649
59.17099	-0.00697
59.20203	-0.00745
59.22273	-0.00842
59.25377	-0.00745
59.28482	-0.01003
59.31586	-0.00777
59.35725	-0.00681
59.38830	-0.00842
59.41934	-0.00697
59.46073	-0.00745
59.49178	-0.00890
59.52282	-0.00971
59.54352	-0.01277
59.57456	-0.00922
59.60561	-0.00600
59.63665	-0.00697
59.65735	-0.01003
59.67805	-0.00375
59.70909	-0.00906
59.75048	-0.00826
59.80223	-0.00407
59.85397	-0.00632
59.89536	-0.00681
59.92640	-0.00761
59.96780	-0.00761
60.00919	-0.00230
60.04023	-0.00359
60.09197	-0.00938
60.14372	-0.00616
60.19546	-0.00745
60.25755	-0.00826
60.30929	-0.00794
60.35068	-0.01019
60.39207	-0.00423
60.43347	-0.00230
60.47486	-0.00826
60.51625	-0.00665
60.54730	-0.00713
60.56799	-0.00665
60.58869	-0.00649
60.60938	-0.00810
60.64043	-0.01245
60.67147	-0.00600
60.70252	-0.00729
60.74391	-0.00729
60.79565	-0.00955
60.82670	-0.00697
60.86809	-0.00681
60.91983	-0.00439
60.96122	-0.00584
61.01296	-0.00777
61.06471	-0.00649
61.13714	-0.00487
61.20958	-0.00294
61.27167	-0.00729
61.32341	-0.00568
61.38550	-0.00504
61.44759	-0.00794
61.50968	-0.00504
61.57177	-0.00729
61.62351	-0.00423
61.69595	-0.00922
61.75803	-0.00810
61.80978	-0.00326
61.87186	-0.00810
61.92361	-0.00230
61.98569	-0.00439
62.05813	-0.00552
62.14092	-0.00632
62.21335	-0.00665
62.27544	-0.00504
62.32719	-0.01003
62.37893	-0.00681
62.42032	-0.00310
62.46171	-0.00568
62.50310	-0.00761
62.53415	-0.00391
62.57554	-0.00600
62.61693	-0.00342
62.66868	-0.00616
62.71007	-0.00407
62.76181	-0.00375
62.79285	-0.00665
62.83425	-0.00729
62.87564	-0.00568
62.92738	-0.00455
62.97912	-0.00359
63.03086	-0.00504
63.09295	-0.00681
63.16539	-0.00761
63.23783	-0.00165
63.31026	-0.00439
63.37235	-0.00713
63.43444	-0.00197
63.50688	-0.00616
63.55862	-0.00375
63.62071	-0.00069
63.67245	-0.00310
63.71384	-0.00471
63.75524	-0.00181
63.79663	-0.00471
63.84837	-0.00375
63.88976	-0.00536
63.93116	-0.00455
63.97255	-0.00858
63.99324	-0.00552
64.02429	-0.00455
64.06568	-0.00536
64.10707	-0.00568
64.15882	-0.00407
64.21056	-0.00359
64.27265	-0.00294
64.32439	-0.00584
64.37613	-0.00423
64.42787	-0.00504
64.47961	-0.00391
64.53135	-0.00342
64.58309	-0.00310
64.63483	-0.00020
64.68657	-0.00310
64.73831	-0.00052
64.77971	-0.00616
64.84180	-0.00101
64.88319	-0.00536
64.93493	-0.00294
64.97632	-0.00262
65.02806	-0.00359
65.05911	0.00205
65.10050	-0.00359
65.13155	-0.00069
65.18329	0.00093
65.22468	0.00157
65.26607	0.00157
65.30747	-0.00471
65.32816	-0.00697
65.37990	-0.00616
65.41095	-0.00342
65.44199	-0.00117
65.48338	-0.00117
65.50408	-0.00536
65.53513	-0.00165
65.57652	0.00060
65.60756	0.00093
65.63861	0.00350
65.68000	-0.00036
65.71105	-0.00052
65.75244	-0.00117
65.78348	-0.00197
65.82488	-0.00359
65.87662	-0.00262
65.91801	-0.00020
65.95940	-0.00181
65.99045	-0.00310
66.01114	-0.00375
66.03184	-0.00214
66.05254	-0.00197
66.07323	-0.00262
66.10428	-0.00149
66.13532	-0.00375
66.17671	-0.00020
66.21811	-0.00455
66.26985	0.00205
66.31124	-0.00487
66.35263	-0.00085
66.38368	-0.00214
66.42507	-0.00181
66.46646	-0.00407
66.49751	0.00060
66.54925	-0.00278
66.60099	-0.00568
66.64238	-0.00246
66.67343	-0.00197
66.70447	0.00157
66.73552	0.00076
66.77691	-0.00310
66.81830	-0.00262
66.85970	0.00173
66.90109	-0.00133
66.94248	-0.00133
66.97353	-0.00133
66.99422	-0.00487
67.02527	-0.00326
67.05631	-0.00181
67.08736	-0.00552
67.11840	0.00093
67.14944	0.00093
67.18049	-0.00165
67.21153	-0.00359
67.25293	-0.00004
67.29432	-0.00149
67.33571	-0.00020
67.36676	-0.00278
67.40815	0.00109
67.44954	-0.00181
67.49093	-0.00117
67.53233	0.00173
67.58407	0.00157
67.62546	-0.00407
67.67720	-0.00165
67.71860	0.00286
67.75999	-0.00149
67.80138	0.00044
67.84277	-0.00262
67.88417	0.00205
67.91521	-0.00487
67.95660	-0.00085
67.99800	0.00157
68.02904	-0.00117
68.06009	0.00060
68.09113	0.00141
68.14287	0.00028
68.18426	0.00125
68.24635	0.00383
68.29809	-0.00052
68.34984	0.00093
68.40158	-0.00020
68.46367	0.00286
68.52575	-0.00020
68.58784	0.00012
68.64993	0.00221
68.72237	-0.00165
68.78446	0.00302
68.83620	0.00028
68.87759	-0.00020
68.93968	0.00302
69.00177	0.00318
69.07421	-0.00133
69.13630	-0.00214
69.17769	0.00157
69.20874	0.00350
69.23978	-0.00117
69.27082	0.00141
69.31222	0.00141
69.35361	-0.00036
69.39500	0.00624
69.45709	0.00189
69.51918	0.00044
69.58127	0.00302
69.64336	0.00028
69.68475	0.00221
69.73649	0.00173
69.77789	-0.00149
69.81928	0.00544
69.87102	0.00205
69.91241	0.00238
69.94346	0.00238
69.98485	0.00447
70.00555	0.00044
70.03659	0.00093
70.05729	0.00173
70.07798	0.00270
70.08833	0.00576
70.09868	0.00205
70.11938	0.00366
70.12972	0.00350
70.15042	0.00286
70.16077	0.00447
70.18147	0.00801
70.20216	0.00238
70.23321	0.00254
70.26425	0.00479
70.28495	0.00221
70.30564	0.00334
70.32634	0.00254
70.35739	0.00447
70.38843	0.00334
70.41947	0.00028
70.44017	0.00221
70.46087	0.00044
70.49191	0.00286
70.53330	0.00318
70.57470	0.00415
70.61609	0.00270
70.65748	0.00463
70.68853	0.00205
70.71957	0.00463
70.76096	0.00544
70.79201	0.00753
70.81271	0.00737
70.83340	0.00173
70.86445	0.00866
70.88514	0.00672
70.90584	0.00592
70.93688	0.00318
70.95758	0.01011
70.98863	0.00302
71.03002	0.01124
71.08176	0.00544
71.13350	0.00737
71.18524	0.01043
71.22663	0.00962
71.26803	0.00962
71.30942	0.01107
71.34046	0.01027
71.38186	0.00801
71.41290	0.00801
71.46464	0.01494
71.49569	0.01140
71.53708	0.01446
71.58882	0.01091
71.63021	0.01365
71.68195	0.01446
71.73370	0.01397
71.77509	0.01816
71.81648	0.01768
71.85787	0.01510
71.88892	0.01752
71.91996	0.01752
71.96136	0.02042
71.98205	0.01897
72.02344	0.02267
72.07519	0.02090
72.11658	0.01575
72.14762	0.01865
72.17867	0.01848
72.19936	0.01993
72.22006	0.01720
72.23041	0.01542
72.25111	0.01736
72.27180	0.01720
72.28215	0.01414
72.30285	0.01687
72.31319	0.01446
72.32354	0.01816
72.34424	0.01494
72.35459	0.01607
72.37528	0.01059
72.39598	0.01043
72.41668	0.01236
72.44772	0.01494
72.48911	0.00834
72.52016	0.01172
72.55120	0.01349
72.58225	0.01011
72.61329	0.00672
72.63399	0.00495
72.66503	0.00882
72.68573	0.00672
72.70643	0.01446
72.72712	0.00882
72.74782	0.00850
72.76851	0.00850
72.78921	0.00608
72.79956	0.00495
72.83060	0.00544
72.85130	0.00576
72.87200	0.01043
72.90304	0.00930
72.93409	0.00995
72.95478	0.01011
72.98583	0.00962
73.00652	0.01204
73.02722	0.00656
73.04792	0.00624
73.06861	0.00447
73.09966	0.00882
73.12035	0.00560
73.16175	0.01059
73.21349	0.00753
73.25488	0.00640
73.29627	0.00979
73.33767	0.00753
73.36871	0.00640
73.39975	0.00850
73.42045	0.00608
73.45150	0.00721
73.47219	0.00817
73.50324	0.00592
73.52393	0.00914
73.55498	0.00656
73.58602	0.00399
73.62742	0.01027
73.65846	0.01301
73.67916	0.01075
73.71020	0.00995
73.73090	0.00769
73.76194	0.01188
73.79299	0.00882
73.81368	0.00705
73.84473	0.00576
73.88612	0.01043
73.92751	0.00979
73.97925	0.00898
74.02065	0.01220
74.06204	0.00914
74.09308	0.00801
74.11378	0.01011
74.14483	0.01075
74.16552	0.00866
74.19657	0.00930
74.22761	0.00656
74.25866	0.00850
74.28970	0.00930
74.32074	0.00834
74.36214	0.00672
74.39318	0.01091
74.41388	0.00914
74.43457	0.00866
74.45527	0.00672
74.48632	0.01124
74.51736	0.01011
74.54840	0.01188
74.58980	0.01091
74.64154	0.00834
74.68293	0.01059
74.73467	0.00914
74.77607	0.00946
74.82781	0.00914
74.85885	0.01204
74.90024	0.00995
74.93129	0.00898
74.96233	0.01156
75.00373	0.01156
75.03477	0.00689
75.05547	0.01365
75.07616	0.00914
75.09686	0.00656
75.10721	0.00769
75.12790	0.01091
75.13825	0.01107
75.15895	0.00946
75.17964	0.01140
75.18999	0.01075
75.21069	0.01301
75.24173	0.01252
75.27278	0.00914
75.31417	0.01478
75.34522	0.01124
75.37626	0.01542
75.40730	0.00753
75.43835	0.01156
75.47974	0.01027
75.51079	0.00962
75.55218	0.00689
75.58322	0.01027
75.61427	0.00882
75.65566	0.01204
75.67636	0.00769
75.70740	0.00866
75.72810	0.01043
75.74880	0.00979
75.77984	0.01156
75.81088	0.01059
75.86263	0.00979
75.91437	0.01124
75.96611	0.01542
76.01785	0.00898
76.06959	0.01236
76.12133	0.01140
76.19377	0.00769
76.26621	0.00721
76.34899	0.00753
76.42143	0.00979
76.50421	0.01172
76.57665	0.01091
76.64909	0.00962
76.71118	0.01075
76.76292	0.01188
76.80431	0.00930
76.84570	0.01156
76.88710	0.01236
76.93884	0.01059
76.99058	0.01269
77.04232	0.00898
77.08371	0.01317
77.12511	0.01075
77.15615	0.00689
77.18719	0.00817
77.22859	0.01204
77.28033	0.00914
77.32172	0.00898
77.37346	0.00753
77.43555	0.01011
77.48729	0.01365
77.55973	0.00930
77.62182	0.01317
77.69426	0.01156
77.77704	0.01091
77.84948	0.00930
77.90122	0.01430
77.96331	0.01124
78.02540	0.01043
78.07714	0.01236
78.11853	0.00882
78.18062	0.01091
78.24271	0.01252
78.29445	0.00930
78.34619	0.01075
78.40828	0.01381
78.46002	0.00898
78.52211	0.01220
78.58420	0.01397
78.63594	0.00962
78.67733	0.01333
78.72908	0.01478
78.78082	0.01188
78.85325	0.01075
78.93604	0.01414
79.03952	0.01124
79.13266	0.01220
79.22579	0.00995
79.30857	0.01285
79.36032	0.01349
79.40171	0.01349
79.41206	0.01365
79.42241	0.01059
79.43275	0.00979
79.44310	0.00817
79.45345	0.00801
79.46380	0.01317
79.47415	0.01091
79.48449	0.01075
79.50519	0.00882
79.51554	0.00979
79.53624	0.01075
79.57763	0.01252
79.62937	0.01188
79.71215	0.01188
79.79494	0.01414
79.86738	0.01236
79.93981	0.01269
80.01225	0.01027